"Wavelength, µm","k"
0.21,0.411
0.22,0.503
0.23,0.564
0.24,0.601
0.25,0.603
0.26,0.569
0.27,0.511
0.28,0.466
0.29,0.445
0.3,0.436
0.31,0.434
0.32,0.439
0.33,0.447
0.34,0.454
0.35,0.465
0.36,0.47
0.37,0.491
0.38,0.504
0.39,0.517
0.4,0.529
0.41,0.542
0.42,0.556
0.43,0.569
0.44,0.583
0.45,0.596
0.46,0.61
0.47,0.623
0.48,0.636
0.49,0.648
0.5,0.659
0.51,0.669
0.52,0.68
0.53,0.69
0.54,0.7
0.55,0.711
0.56,0.721
0.57,0.732
0.58,0.743
0.59,0.754
0.6,0.765
0.61,0.777
0.62,0.788
0.63,0.8
0.64,0.814
0.65,0.822
0.66,0.832
0.67,0.844
0.68,0.855
0.69,0.866
0.7,0.877
0.71,0.888
0.72,0.898
0.73,0.909
0.74,0.919
0.75,0.929
0.76,0.94
0.77,0.95
0.78,0.96
0.79,0.97
0.8,0.979
0.81,0.988
0.82,0.999
0.83,1.011
0.84,1.022
0.85,1.032
0.86,1.044
0.87,1.054
0.88,1.062
0.89,1.07
0.9,1.08
0.91,1.09
0.92,1.098
0.93,1.107
0.94,1.116
0.95,1.124
0.96,1.132
0.97,1.141
0.98,1.149
0.99,1.158
1,1.167
1.01,1.176
1.02,1.185
1.03,1.194
1.04,1.204
1.05,1.213
1.06,1.222
1.07,1.231
1.08,1.24
1.09,1.249
1.1,1.257
1.11,1.266
1.12,1.275
1.13,1.284
1.14,1.293
1.15,1.302
1.16,1.311
1.17,1.321
1.18,1.329
1.19,1.338
1.2,1.352
1.21,1.366
1.22,1.374
1.23,1.382
1.24,1.39
1.25,1.399
1.26,1.407
1.27,1.416
1.28,1.424
1.29,1.432
1.3,1.44
1.31,1.448
1.32,1.456
1.33,1.465
1.34,1.473
1.35,1.482
1.36,1.49
1.37,1.499
1.38,1.508
1.39,1.516
1.4,1.524
1.41,1.533
1.42,1.543
1.43,1.551
1.44,1.559
1.45,1.567
1.46,1.576
1.47,1.584
1.48,1.591
1.49,1.6
1.5,1.608
1.51,1.616
1.52,1.624
1.53,1.63
1.54,1.638
1.55,1.646
1.56,1.652
1.57,1.66
1.58,1.666
1.59,1.673
1.6,1.68
1.61,1.687
1.62,1.694
1.63,1.702
1.64,1.71
1.65,1.72
1.66,1.73
1.67,1.735
1.68,1.741
1.69,1.749
1.7,1.757
1.71,1.765
1.72,1.772
1.73,1.78
1.74,1.788
1.75,1.795
1.76,1.802
1.77,1.809
1.78,1.817
1.79,1.824
1.8,1.831
1.81,1.836
1.82,1.841
1.83,1.848
1.84,1.854
1.85,1.861
1.86,1.864
1.87,1.868
1.88,1.877
1.89,1.884
1.9,1.89
1.91,1.896
1.92,1.903
1.93,1.91
1.94,1.918
1.95,1.925
1.96,1.931
1.97,1.937
1.98,1.944
1.99,1.95
2,1.965
2.01,1.979
2.02,1.985
2.03,1.991
2.04,1.997
2.05,2.003
2.06,2.009
2.07,2.015
2.08,2.021
2.09,2.026
2.1,2.032
2.11,2.038
2.12,2.045
2.13,2.051
2.14,2.056
2.15,2.062
2.16,2.069
2.17,2.075
2.18,2.081
2.19,2.087
2.2,2.093
2.21,2.1
2.22,2.107
2.23,2.114
2.24,2.121
2.25,2.129
2.26,2.138
2.27,2.145
2.28,2.153
2.29,2.16
2.3,2.165
2.31,2.17
2.32,2.175
2.33,2.182
2.34,2.189
2.35,2.196
2.36,2.202
2.37,2.208
2.38,2.214
2.39,2.22
2.4,2.226
2.41,2.232
2.42,2.238
2.43,2.245
2.44,2.253
2.45,2.26
2.46,2.267
2.47,2.273
2.48,2.279
2.49,2.285
2.5,2.269
2.5063,2.264
2.5126,2.268
2.5189,2.271
2.5253,2.276
2.5316,2.282
2.5381,2.287
2.5445,2.291
2.551,2.293
2.5575,2.297
2.5641,2.301
2.5707,2.306
2.5773,2.311
2.584,2.315
2.5907,2.318
2.5974,2.322
2.6042,2.327
2.611,2.331
2.6178,2.334
2.6247,2.338
2.6316,2.341
2.6385,2.344
2.6455,2.348
2.6525,2.354
2.6596,2.36
2.6667,2.365
2.6738,2.37
2.681,2.373
2.6882,2.376
2.6954,2.378
2.7027,2.383
2.71,2.388
2.7174,2.395
2.7248,2.399
2.7322,2.402
2.7397,2.405
2.7473,2.409
2.7548,2.413
2.7624,2.418
2.7701,2.421
2.7778,2.426
2.7855,2.431
2.7933,2.435
2.8011,2.44
2.809,2.445
2.8169,2.45
2.8249,2.453
2.8329,2.457
2.8409,2.461
2.849,2.466
2.8571,2.47
2.8653,2.476
2.8736,2.48
2.8818,2.484
2.8902,2.486
2.8986,2.493
2.907,2.498
2.9155,2.503
2.924,2.506
2.9326,2.509
2.9412,2.513
2.9499,2.517
2.9586,2.521
2.9674,2.527
2.9762,2.532
2.9851,2.537
2.994,2.543
3.003,2.548
3.012,2.552
3.0211,2.557
3.0303,2.563
3.0395,2.567
3.0488,2.569
3.0581,2.573
3.0675,2.579
3.0769,2.583
3.0864,2.588
3.096,2.592
3.1056,2.597
3.1153,2.602
3.125,2.607
3.1348,2.612
3.1447,2.617
3.1546,2.621
3.1646,2.626
3.1746,2.629
3.1847,2.636
3.1949,2.642
3.2051,2.647
3.2154,2.649
3.2258,2.654
3.2362,2.659
3.2468,2.665
3.2573,2.668
3.268,2.673
3.2787,2.676
3.2895,2.681
3.3003,2.686
3.3113,2.692
3.3223,2.698
3.3333,2.703
3.3445,2.707
3.3557,2.712
3.367,2.718
3.3784,2.724
3.3898,2.727
3.4014,2.733
3.413,2.74
3.4247,2.748
3.4364,2.752
3.4483,2.756
3.4602,2.762
3.4722,2.767
3.4843,2.773
3.4965,2.777
3.5088,2.783
3.5211,2.788
3.5336,2.794
3.5461,2.797
3.5587,2.803
3.5714,2.808
3.5842,2.817
3.5971,2.821
3.6101,2.827
3.6232,2.833
3.6364,2.84
3.6496,2.845
3.663,2.851
3.6765,2.856
3.69,2.861
3.7037,2.868
3.7175,2.875
3.7313,2.882
3.7453,2.888
3.7594,2.894
3.7736,2.9
3.7879,2.906
3.8023,2.912
3.8168,2.918
3.8314,2.922
3.8462,2.927
3.861,2.934
3.876,2.943
3.8911,2.949
3.9063,2.955
3.9216,2.962
3.937,2.969
3.9526,2.977
3.9683,2.982
3.9841,2.989
4,2.995
4.0161,3.002
4.0323,3.009
4.0486,3.017
4.065,3.024
4.0816,3.028
4.0984,3.034
4.1152,3.039
4.1322,3.045
4.1494,3.054
4.1667,3.064
4.1841,3.073
4.2017,3.077
4.2194,3.08
4.2373,3.086
4.2553,3.093
4.2735,3.101
4.2918,3.107
4.3103,3.115
4.329,3.124
4.3478,3.134
4.3668,3.145
4.386,3.153
4.4053,3.16
4.4248,3.166
4.4444,3.174
4.4643,3.181
4.4843,3.191
4.5045,3.199
4.5249,3.208
4.5455,3.217
4.5662,3.225
4.5872,3.231
4.6083,3.239
4.6296,3.249
4.6512,3.258
4.6729,3.269
4.6948,3.277
4.717,3.284
4.7393,3.292
4.7619,3.302
4.7847,3.307
4.8077,3.316
4.8309,3.327
4.8544,3.335
4.878,3.342
4.902,3.351
4.9261,3.359
4.9505,3.366
4.9751,3.376
5,3.399
5.0251,3.421
5.0505,3.437
5.0761,3.444
5.102,3.452
5.1282,3.463
5.1546,3.474
5.1813,3.483
5.2083,3.49
5.2356,3.498
5.2632,3.507
5.291,3.519
5.3191,3.531
5.3476,3.54
5.3763,3.549
5.4054,3.558
5.4348,3.566
5.4645,3.576
5.4945,3.589
5.5249,3.6
5.5556,3.61
5.5866,3.622
5.618,3.631
5.6497,3.643
5.6818,3.654
5.7143,3.667
5.7471,3.68
5.7803,3.69
5.814,3.701
5.848,3.715
5.8824,3.728
5.9172,3.74
5.9524,3.749
5.988,3.76
6.0241,3.768
6.0606,3.78
6.0976,3.792
6.135,3.799
6.1728,3.806
6.2112,3.815
6.25,3.829
6.2893,3.85
6.3291,3.872
6.3694,3.888
6.4103,3.895
6.4516,3.904
6.4935,3.918
6.5359,3.931
6.5789,3.943
6.6225,3.955
6.6667,3.964
6.7114,3.975
6.7568,3.989
6.8027,4.006
6.8493,4.02
6.8966,4.031
6.9444,4.043
6.993,4.061
7.0423,4.07
7.0922,4.079
7.1429,4.091
7.1942,4.107
7.2464,4.119
7.2993,4.134
7.3529,4.148
7.4074,4.161
7.4627,4.175
7.5188,4.19
7.5758,4.205
7.6336,4.219
7.6923,4.235
7.7519,4.25
7.8125,4.265
7.874,4.283
7.9365,4.297
8,4.316
8.0645,4.332
8.1301,4.356
8.1967,4.377
8.2645,4.4
8.3333,4.419
8.4034,4.434
8.4746,4.453
8.547,4.471
8.6207,4.486
8.6957,4.505
8.7719,4.528
8.8496,4.551
8.9286,4.569
9.009,4.589
9.0909,4.617
9.1743,4.64
9.2593,4.662
9.3458,4.683
9.434,4.705
9.5238,4.727
9.6154,4.751
9.7087,4.774
9.8039,4.799
9.901,4.822
10,4.844
10.101,4.863
10.2041,4.885
10.3093,4.909
10.4167,4.934
10.5263,4.966
10.6383,4.995
10.7527,5.02
10.8696,5.044
10.989,5.077
11.1111,5.112
11.236,5.144
11.3636,5.173
11.4943,5.208
11.6279,5.247
11.7647,5.286
11.9048,5.323
12.0482,5.367
12.1951,5.407
12.3457,5.449
12.5,5.491
12.6582,5.527
12.8205,5.57
12.987,5.618
13.1579,5.664
13.3333,5.705
13.5135,5.751
13.6986,5.799
13.8889,5.847
14.0845,5.898
14.2857,5.948
14.4928,6.016
14.7059,6.08
14.9254,6.134
15.1515,6.187
15.3846,6.247
15.625,6.338
15.873,6.442
16.129,6.535
16.3934,6.602
16.6667,6.661
16.9492,6.723
17.2414,6.78
17.5439,6.842
17.8571,6.904
18.1818,6.96
18.5185,7.016
18.8679,7.072
19.2308,7.137
19.6078,7.223
20,7.299
20.4082,7.406
20.8333,7.524
21.2766,7.629
21.7391,7.72
22.2222,7.818
22.7273,7.934
23.2558,8.037
23.8095,8.135
24.3902,8.232
25,8.322
25.641,8.384
26.3158,8.444
27.027,8.524
27.7778,8.625
28.5714,8.71
29.4118,8.814
30.303,8.901
31.25,8.966
32.2581,9.033
33.3333,9.117
34.4828,9.217
35.7143,9.266
37.037,9.253
38.4615,9.27
40,9.235
41.6667,9.144
43.4783,9.11
45.4545,9.101
47.619,8.938
50,8.878
52.6316,8.874
55.5556,8.794